File: exp_data/EDS_data/EDS_Etch_Outer.txt
#FORMAT      : EMSA/MAS Spectral Data File
#VERSION     : 1.0
#TITLE       : Etch Outer
#DATE        : 02-JUN-2021
#TIME        : 15:22
#OWNER       :
#NPOINTS     : 1024.0
#NCOLUMNS    : 1.0
#XUNITS      : keV
#YUNITS      : counts
#DATATYPE    : XY
#XPERCHAN    : 0.01
#OFFSET      : -0.1
#SIGNALTYPE  : EDS
#CHOFFSET    : 10.0
#LIVETIME    : 60.5613
#REALTIME    : 73.6124
#BEAMKV      : 10.0
#MAGCAM      : 800.0
#XTILTSTGE   : 0.0
#AZIMANGLE   : 0.0
#ELEVANGLE   : 25.5
#XPOSITION mm: 3.5345
#YPOSITION mm: 7.0698
#ZPOSITION mm: 6.4412
##OXINSTPT   : 6
##OXINSTSTROB: 33.55
##OXINSTELEMS: 13,14,6,8,63,16
##OXINSTLABEL: 13, 1.487, Al
##OXINSTLABEL: 14, 1.740, Si
##OXINSTLABEL: 6, 0.277, C
##OXINSTLABEL: 8, 0.525, O
##OXINSTLABEL: 63, 5.844, Eu
##OXINSTLABEL: 63, 6.456, Eu
##OXINSTLABEL: 63, 6.841, Eu
##OXINSTLABEL: 63, 5.815, Eu
##OXINSTLABEL: 63, 7.477, Eu
##OXINSTLABEL: 63, 7.768, Eu
##OXINSTLABEL: 63, 5.177, Eu
##OXINSTLABEL: 63, 1.131, Eu
##OXINSTLABEL: 63, 1.346, Eu
##OXINSTLABEL: 63, 0.868, Eu
##OXINSTLABEL: 16, 2.308, S
##OXINSTLABEL: 16, 2.464, S
#SPECTRUM    : Spectral Data Starts Here
-0.10000, 0.0
-0.06000, 0.0
-0.02000, 1080.0
0.02000, 5114.0
0.06000, 215.0
0.10000, 423.0
0.14000, 61.0
0.18000, 47.0
0.22000, 61.0
0.26000, 145.0
0.30000, 65.0
0.34000, 37.0
0.38000, 58.0
0.42000, 68.0
0.46000, 107.0
0.50000, 197.0
0.54000, 212.0
0.58000, 137.0
0.62000, 152.0
0.66000, 188.0
0.70000, 200.0
0.74000, 210.0
0.78000, 223.0
0.82000, 253.0
0.86000, 291.0
0.90000, 306.0
0.94000, 271.0
0.98000, 265.0
1.02000, 272.0
1.06000, 277.0
1.10000, 313.0
1.14000, 380.0
1.18000, 317.0
1.22000, 264.0
1.26000, 237.0
1.30000, 242.0
1.34000, 267.0
1.38000, 257.0
1.42000, 274.0
1.46000, 313.0
1.50000, 338.0
1.54000, 318.0
1.58000, 315.0
1.62000, 307.0
1.66000, 1031.0
1.70000, 10673.0
1.74000, 27530.0
1.78000, 14702.0
1.82000, 2712.0
1.86000, 1027.0
1.90000, 304.0
1.94000, 88.0
1.98000, 82.0
2.02000, 82.0
2.06000, 87.0
2.10000, 96.0
2.14000, 90.0
2.18000, 75.0
2.22000, 87.0
2.26000, 122.0
2.30000, 177.0
2.34000, 161.0
2.38000, 104.0
2.42000, 94.0
2.46000, 84.0
2.50000, 92.0
2.54000, 88.0
2.58000, 93.0
2.62000, 86.0
2.66000, 77.0
2.70000, 75.0
2.74000, 76.0
2.78000, 77.0
2.82000, 73.0
2.86000, 84.0
2.90000, 85.0
2.94000, 72.0
2.98000, 73.0
3.02000, 77.0
3.06000, 75.0
3.10000, 74.0
3.14000, 82.0
3.18000, 79.0
3.22000, 70.0
3.26000, 62.0
3.30000, 73.0
3.34000, 64.0
3.38000, 69.0
3.42000, 59.0
3.46000, 102.0
3.50000, 99.0
3.54000, 83.0
3.58000, 67.0
3.62000, 59.0
3.66000, 58.0
3.70000, 56.0
3.74000, 56.0
3.78000, 63.0
3.82000, 70.0
3.86000, 70.0
3.90000, 48.0
3.94000, 64.0
3.98000, 47.0
4.02000, 61.0
4.06000, 54.0
4.10000, 66.0
4.14000, 57.0
4.18000, 52.0
4.22000, 44.0
4.26000, 52.0
4.30000, 41.0
4.34000, 46.0
4.38000, 42.0
4.42000, 49.0
4.46000, 50.0
4.50000, 43.0
4.54000, 57.0
4.58000, 39.0
4.62000, 46.0
4.66000, 37.0
4.70000, 38.0
4.74000, 37.0
4.78000, 40.0
4.82000, 45.0
4.86000, 37.0
4.90000, 40.0
4.94000, 43.0
4.98000, 41.0
5.02000, 35.0
5.06000, 35.0
5.10000, 36.0
5.14000, 31.0
5.18000, 31.0
5.22000, 39.0
5.26000, 29.0
5.30000, 33.0
5.34000, 32.0
5.38000, 32.0
5.42000, 26.0
5.46000, 29.0
5.50000, 32.0
5.54000, 35.0
5.58000, 40.0
5.62000, 29.0
5.66000, 26.0
5.70000, 27.0
5.74000, 22.0
5.78000, 41.0
5.82000, 41.0
5.86000, 57.0
5.90000, 46.0
5.94000, 36.0
5.98000, 23.0
6.02000, 30.0
6.06000, 23.0
6.10000, 19.0
6.14000, 25.0
6.18000, 25.0
6.22000, 24.0
6.26000, 24.0
6.30000, 23.0
6.34000, 23.0
6.38000, 21.0
6.42000, 31.0
6.46000, 24.0
6.50000, 25.0
6.54000, 23.0
6.58000, 22.0
6.62000, 22.0
6.66000, 17.0
6.70000, 26.0
6.74000, 18.0
6.78000, 21.0
6.82000, 21.0
6.86000, 24.0
6.90000, 17.0
6.94000, 17.0
6.98000, 15.0
7.02000, 12.0
7.06000, 18.0
7.10000, 17.0
7.14000, 15.0
7.18000, 12.0
7.22000, 13.0
7.26000, 13.0
7.30000, 7.0
7.34000, 16.0
7.38000, 17.0
7.42000, 13.0
7.46000, 13.0
7.50000, 10.0
7.54000, 13.0
7.58000, 14.0
7.62000, 14.0
7.66000, 10.0
7.70000, 8.0
7.74000, 15.0
7.78000, 11.0
7.82000, 11.0
7.86000, 11.0
7.90000, 6.0
7.94000, 9.0
7.98000, 8.0
8.02000, 12.0
8.06000, 7.0
8.10000, 11.0
8.14000, 7.0
8.18000, 7.0
8.22000, 7.0
8.26000, 7.0
8.30000, 10.0
8.34000, 10.0
8.38000, 8.0
8.42000, 6.0
8.46000, 7.0
8.50000, 8.0
8.54000, 11.0
8.58000, 10.0
8.62000, 6.0
8.66000, 5.0
8.70000, 7.0
8.74000, 7.0
8.78000, 8.0
8.82000, 4.0
8.86000, 6.0
8.90000, 8.0
8.94000, 6.0
8.98000, 6.0
9.02000, 6.0
9.06000, 5.0
9.10000, 4.0
9.14000, 4.0
9.18000, 6.0
9.22000, 2.0
9.26000, 4.0
9.30000, 5.0
9.34000, 4.0
9.38000, 2.0
9.42000, 6.0
9.46000, 3.0
9.50000, 1.0
9.54000, 2.0
9.58000, 3.0
9.62000, 2.0
9.66000, 2.0
9.70000, 3.0
9.74000, 3.0
9.78000, 3.0
9.82000, 2.0
9.86000, 2.0
9.90000, 3.0
9.94000, 1.0
9.98000, 1.0
10.02000, 1.0
10.06000, 2.0
10.10000, 0.0
10.13000, 0.0
#ENDOFDATA   :