File: exp_data/EDS_data/EDS_Un-etched.txt
#FORMAT      : EMSA/MAS Spectral Data File
#VERSION     : 1.0
#TITLE       : Un-etched
#DATE        : 02-JUN-2021
#TIME        : 15:25
#OWNER       :
#NPOINTS     : 1024.0
#NCOLUMNS    : 1.0
#XUNITS      : keV
#YUNITS      : counts
#DATATYPE    : XY
#XPERCHAN    : 0.01
#OFFSET      : -0.1
#SIGNALTYPE  : EDS
#CHOFFSET    : 10.0
#LIVETIME    : 60.1418
#REALTIME    : 72.923
#BEAMKV      : 10.0
#MAGCAM      : 800.0
#XTILTSTGE   : 0.0
#AZIMANGLE   : 0.0
#ELEVANGLE   : 25.5
#XPOSITION mm: 3.5345
#YPOSITION mm: 7.0698
#ZPOSITION mm: 6.4412
##OXINSTPT   : 6
##OXINSTSTROB: 33.62
##OXINSTELEMS: 13,14,6,8,16,63
##OXINSTLABEL: 13, 1.487, Al
##OXINSTLABEL: 14, 1.740, Si
##OXINSTLABEL: 6, 0.277, C
##OXINSTLABEL: 8, 0.525, O
##OXINSTLABEL: 16, 2.308, S
##OXINSTLABEL: 16, 2.464, S
##OXINSTLABEL: 63, 5.844, Eu
##OXINSTLABEL: 63, 6.456, Eu
##OXINSTLABEL: 63, 6.841, Eu
##OXINSTLABEL: 63, 5.815, Eu
##OXINSTLABEL: 63, 7.477, Eu
##OXINSTLABEL: 63, 7.768, Eu
##OXINSTLABEL: 63, 5.177, Eu
##OXINSTLABEL: 63, 1.131, Eu
##OXINSTLABEL: 63, 1.346, Eu
##OXINSTLABEL: 63, 0.868, Eu
#SPECTRUM    : Spectral Data Starts Here
-0.10000, 0.0
-0.06000, 3.0
-0.02000, 1087.0
0.02000, 5024.0
0.06000, 179.0
0.10000, 269.0
0.14000, 53.0
0.18000, 35.0
0.22000, 54.0
0.26000, 135.0
0.30000, 76.0
0.34000, 40.0
0.38000, 62.0
0.42000, 72.0
0.46000, 106.0
0.50000, 212.0
0.54000, 225.0
0.58000, 134.0
0.62000, 140.0
0.66000, 194.0
0.70000, 194.0
0.74000, 230.0
0.78000, 223.0
0.82000, 245.0
0.86000, 291.0
0.90000, 291.0
0.94000, 269.0
0.98000, 276.0
1.02000, 265.0
1.06000, 298.0
1.10000, 300.0
1.14000, 388.0
1.18000, 303.0
1.22000, 266.0
1.26000, 253.0
1.30000, 250.0
1.34000, 280.0
1.38000, 248.0
1.42000, 293.0
1.46000, 456.0
1.50000, 564.0
1.54000, 372.0
1.58000, 304.0
1.62000, 300.0
1.66000, 974.0
1.70000, 10248.0
1.74000, 26806.0
1.78000, 14278.0
1.82000, 2657.0
1.86000, 1060.0
1.90000, 280.0
1.94000, 100.0
1.98000, 97.0
2.02000, 91.0
2.06000, 81.0
2.10000, 87.0
2.14000, 87.0
2.18000, 85.0
2.22000, 99.0
2.26000, 114.0
2.30000, 195.0
2.34000, 171.0
2.38000, 103.0
2.42000, 93.0
2.46000, 86.0
2.50000, 92.0
2.54000, 88.0
2.58000, 105.0
2.62000, 85.0
2.66000, 78.0
2.70000, 85.0
2.74000, 80.0
2.78000, 93.0
2.82000, 85.0
2.86000, 65.0
2.90000, 77.0
2.94000, 77.0
2.98000, 66.0
3.02000, 76.0
3.06000, 72.0
3.10000, 61.0
3.14000, 71.0
3.18000, 73.0
3.22000, 74.0
3.26000, 69.0
3.30000, 78.0
3.34000, 69.0
3.38000, 73.0
3.42000, 73.0
3.46000, 83.0
3.50000, 104.0
3.54000, 78.0
3.58000, 73.0
3.62000, 65.0
3.66000, 62.0
3.70000, 58.0
3.74000, 48.0
3.78000, 61.0
3.82000, 54.0
3.86000, 56.0
3.90000, 59.0
3.94000, 58.0
3.98000, 58.0
4.02000, 48.0
4.06000, 55.0
4.10000, 52.0
4.14000, 53.0
4.18000, 47.0
4.22000, 49.0
4.26000, 45.0
4.30000, 56.0
4.34000, 53.0
4.38000, 51.0
4.42000, 45.0
4.46000, 38.0
4.50000, 40.0
4.54000, 46.0
4.58000, 41.0
4.62000, 43.0
4.66000, 37.0
4.70000, 40.0
4.74000, 39.0
4.78000, 41.0
4.82000, 35.0
4.86000, 34.0
4.90000, 44.0
4.94000, 35.0
4.98000, 37.0
5.02000, 45.0
5.06000, 38.0
5.10000, 38.0
5.14000, 29.0
5.18000, 34.0
5.22000, 32.0
5.26000, 27.0
5.30000, 33.0
5.34000, 33.0
5.38000, 28.0
5.42000, 32.0
5.46000, 34.0
5.50000, 30.0
5.54000, 27.0
5.58000, 31.0
5.62000, 33.0
5.66000, 29.0
5.70000, 30.0
5.74000, 30.0
5.78000, 45.0
5.82000, 47.0
5.86000, 50.0
5.90000, 39.0
5.94000, 33.0
5.98000, 31.0
6.02000, 27.0
6.06000, 25.0
6.10000, 21.0
6.14000, 31.0
6.18000, 27.0
6.22000, 25.0
6.26000, 26.0
6.30000, 22.0
6.34000, 22.0
6.38000, 24.0
6.42000, 27.0
6.46000, 26.0
6.50000, 26.0
6.54000, 27.0
6.58000, 22.0
6.62000, 19.0
6.66000, 20.0
6.70000, 22.0
6.74000, 17.0
6.78000, 18.0
6.82000, 18.0
6.86000, 18.0
6.90000, 21.0
6.94000, 20.0
6.98000, 18.0
7.02000, 21.0
7.06000, 17.0
7.10000, 20.0
7.14000, 12.0
7.18000, 18.0
7.22000, 14.0
7.26000, 18.0
7.30000, 11.0
7.34000, 15.0
7.38000, 17.0
7.42000, 16.0
7.46000, 12.0
7.50000, 14.0
7.54000, 16.0
7.58000, 12.0
7.62000, 13.0
7.66000, 9.0
7.70000, 9.0
7.74000, 11.0
7.78000, 8.0
7.82000, 9.0
7.86000, 7.0
7.90000, 13.0
7.94000, 10.0
7.98000, 14.0
8.02000, 9.0
8.06000, 10.0
8.10000, 13.0
8.14000, 9.0
8.18000, 6.0
8.22000, 11.0
8.26000, 9.0
8.30000, 8.0
8.34000, 9.0
8.38000, 9.0
8.42000, 9.0
8.46000, 6.0
8.50000, 8.0
8.54000, 6.0
8.58000, 8.0
8.62000, 8.0
8.66000, 5.0
8.70000, 8.0
8.74000, 7.0
8.78000, 6.0
8.82000, 7.0
8.86000, 5.0
8.90000, 5.0
8.94000, 7.0
8.98000, 8.0
9.02000, 4.0
9.06000, 4.0
9.10000, 4.0
9.14000, 3.0
9.18000, 4.0
9.22000, 6.0
9.26000, 3.0
9.30000, 2.0
9.34000, 4.0
9.38000, 4.0
9.42000, 3.0
9.46000, 4.0
9.50000, 3.0
9.54000, 4.0
9.58000, 3.0
9.62000, 3.0
9.66000, 2.0
9.70000, 2.0
9.74000, 0.0
9.78000, 1.0
9.82000, 2.0
9.86000, 2.0
9.90000, 2.0
9.94000, 2.0
9.98000, 1.0
10.02000, 0.0
10.06000, 0.0
10.10000, 0.0
10.13000, 0.0
#ENDOFDATA   :